
Integration time [ms]:  25,000
Averaging Nr. [scans]: 5
Smoothing Nr. [pixels]: 0
Data measured with spectrometer [name]: 1804341U2
Wave   ;Sample   ;Dark     ;Reference;Scope Corrected for Dark
[nm]   ;[counts] ;[counts] ;[counts] 

 317,76;   -0,600;  -48,000;    0,000;47,40000
 317,78;   30,400;  106,000;    0,000;-75,60000
 317,80;  -16,400; -160,000;    0,000;143,60000
 317,82;   21,400;  812,000;    0,000;-790,60000
 317,84;    0,600; -344,000;    0,000;344,60000
 317,86;   -3,200; -306,000;    0,000;302,80000
 317,88;  -13,400;  103,000;    0,000;-116,40000
 317,90;   28,600;  136,000;    0,000;-107,40000
 317,92;    1,600; -446,000;    0,000;447,60000
 317,94;    4,800; -234,000;    0,000;238,80000
 317,96;   -0,400; -147,000;    0,000;146,60000
 317,98;   37,400; -180,000;    0,000;217,40000
 318,00;  -34,000; -512,000;    0,000;478,00000
 318,02;   34,200; -183,000;    0,000;217,20000
 318,04;  -11,400; -401,000;    0,000;389,60000
 318,05;   -5,000;  125,000;    0,000;-130,00000
 318,07;   18,600; -350,000;    0,000;368,60000
 318,09;   23,000;  -52,000;    0,000;75,00000
 318,11;    1,200;  716,000;    0,000;-714,80000
 318,13;    3,400;  564,000;    0,000;-560,60000
 318,15;  -37,200;  -86,000;    0,000;48,80000
 318,17;  -12,600; -375,000;    0,000;362,40000
 318,19;  -39,200;   -2,000;    0,000;-37,20000
 318,21;   -1,600;  -38,000;    0,000;36,40000
 318,23;  -15,200; -386,000;    0,000;370,80000
 318,25;    4,600;  -79,000;    0,000;83,60000
 318,27;   47,800;   32,000;    0,000;15,80000
 318,29;   34,200;  -73,000;    0,000;107,20000
 318,30;  -19,200; -199,000;    0,000;179,80000
 318,32;  -15,000; -167,000;    0,000;152,00000
 318,34;    1,600; -270,000;    0,000;271,60000
 318,36;   10,800;  398,000;    0,000;-387,20000
 318,38;  -21,000; -393,000;    0,000;372,00000
 318,40;   40,400;  -61,000;    0,000;101,40000
 318,42;  -34,800;  196,000;    0,000;-230,80000
 318,44;   12,000;  -25,000;    0,000;37,00000
 318,46;  -18,800; -275,000;    0,000;256,20000
 318,48;   -8,800; -552,000;    0,000;543,20000
 318,50;   17,600; -125,000;    0,000;142,60000
 318,52;   18,600;  368,000;    0,000;-349,40000
 318,54;    8,600; -319,000;    0,000;327,60000
 318,55;   13,000; -329,000;    0,000;342,00000
 318,57;  -17,800;  200,000;    0,000;-217,80000
 318,59;   10,400; -140,000;    0,000;150,40000
 318,61;    3,400; -132,000;    0,000;135,40000
 318,63;   30,600; -371,000;    0,000;401,60000
 318,65;   -4,600;  259,000;    0,000;-263,60000
 318,67;  -16,000; -242,000;    0,000;226,00000
 318,69;   27,800; -256,000;    0,000;283,80000
 318,71;    0,400; -336,000;    0,000;336,40000
 318,73;  -11,400;  -96,000;    0,000;84,60000
 318,75;   10,200;   84,000;    0,000;-73,80000
 318,77;    1,800; -295,000;    0,000;296,80000
 318,79;  -10,600;   84,000;    0,000;-94,60000
 318,80;   20,800;  258,000;    0,000;-237,20000
 318,82;    8,600;  212,000;    0,000;-203,40000
 318,84;   21,200; -400,000;    0,000;421,20000
 318,86;   50,000;  107,000;    0,000;-57,00000
 318,88;  -21,600;  -38,000;    0,000;16,40000
 318,90;   30,200;   61,000;    0,000;-30,80000
 318,92;   16,800; -164,000;    0,000;180,80000
 318,94;   -9,600;  182,000;    0,000;-191,60000
 318,96;   -5,400; -149,000;    0,000;143,60000
 318,98;   15,600;  219,000;    0,000;-203,40000
 319,00;   -2,000; -310,000;    0,000;308,00000
 319,02;   63,600; -378,000;    0,000;441,60000
 319,03;  -41,600; -217,000;    0,000;175,40000
 319,05;  -44,200; -200,000;    0,000;155,80000
 319,07;   20,600; -111,000;    0,000;131,60000
 319,09;   -6,800;  -41,000;    0,000;34,20000
 319,11;    2,800;  193,000;    0,000;-190,20000
 319,13;  -26,000;  352,000;    0,000;-378,00000
 319,15;  -46,200; -444,000;    0,000;397,80000
 319,17;    2,600; -219,000;    0,000;221,60000
 319,19;  -21,400;  119,000;    0,000;-140,40000
 319,21;   37,400;  357,000;    0,000;-319,60000
 319,23;   18,200; -472,000;    0,000;490,20000
 319,25;   -0,600; -370,000;    0,000;369,40000
 319,26;  -12,600;   46,000;    0,000;-58,60000
 319,28;  -16,200;  240,000;    0,000;-256,20000
 319,30;    0,600; -496,000;    0,000;496,60000
 319,32;   24,400;  -20,000;    0,000;44,40000
 319,34;  -12,000;  391,000;    0,000;-403,00000
 319,36;   16,200;  425,000;    0,000;-408,80000
 319,38;   16,000; -542,000;    0,000;558,00000
 319,40;   22,200;  -82,000;    0,000;104,20000
 319,42;    7,600;   10,000;    0,000;-2,40000
 319,44;   -9,600;   82,000;    0,000;-91,60000
 319,46;    6,800;  108,000;    0,000;-101,20000
 319,47;   11,600;  191,000;    0,000;-179,40000
 319,49;   -4,200; -147,000;    0,000;142,80000
 319,51;    0,200;   55,000;    0,000;-54,80000
 319,53;    2,200; -665,000;    0,000;667,20000
 319,55;   23,200; -386,000;    0,000;409,20000
 319,57;    6,600;  163,000;    0,000;-156,40000
 319,59;    9,600; -125,000;    0,000;134,60000
 319,61;   38,600; -343,000;    0,000;381,60000
 319,63;    5,800; -308,000;    0,000;313,80000
 319,65;   42,400;  297,000;    0,000;-254,60000
 319,67;  -23,400;  114,000;    0,000;-137,40000
 319,68;   18,000; -225,000;    0,000;243,00000
 319,70;   -5,400;   77,000;    0,000;-82,40000
 319,72;    0,800; -352,000;    0,000;352,80000
 319,74;  -20,400; -133,000;    0,000;112,60000
 319,76;   12,200; -199,000;    0,000;211,20000
 319,78;    5,800;   36,000;    0,000;-30,20000
 319,80;   -1,600;  -32,000;    0,000;30,40000
 319,82;   24,800;  762,000;    0,000;-737,20000
 319,84;    3,000; -149,000;    0,000;152,00000
 319,86;   -2,200;  -75,000;    0,000;72,80000
 319,88;   -5,800;   48,000;    0,000;-53,80000
 319,89;   51,800;   84,000;    0,000;-32,20000
 319,91;  -32,200; -359,000;    0,000;326,80000
 319,93;   49,600;   62,000;    0,000;-12,40000
 319,95;   11,800; -240,000;    0,000;251,80000
 319,97;   25,200;  268,000;    0,000;-242,80000
 319,99;   13,200; -440,000;    0,000;453,20000
 320,01;    5,200; -245,000;    0,000;250,20000
 320,03;    6,200;  -67,000;    0,000;73,20000
 320,05;   25,800;  888,000;    0,000;-862,20000
 320,07;   27,600; -170,000;    0,000;197,60000
 320,08;   10,200;  304,000;    0,000;-293,80000
 320,10;    5,400;   57,000;    0,000;-51,60000
 320,12;   10,000;  183,000;    0,000;-173,00000
 320,14;   17,800; -316,000;    0,000;333,80000
 320,16;   27,000; -353,000;    0,000;380,00000
 320,18;   -0,400;  -96,000;    0,000;95,60000
 320,20;    6,400;  597,000;    0,000;-590,60000
 320,22;  -22,400; -513,000;    0,000;490,60000
 320,24;    8,400;  232,000;    0,000;-223,60000
 320,26;   32,000; -127,000;    0,000;159,00000
 320,28;   12,800; -100,000;    0,000;112,80000
 320,29;   34,600; -352,000;    0,000;386,60000
 320,31;  -16,600;   80,000;    0,000;-96,60000
 320,33;  -17,200;   24,000;    0,000;-41,20000
 320,35;    9,200;  691,000;    0,000;-681,80000
 320,37;   10,800; -110,000;    0,000;120,80000
 320,39;   26,000;  -62,000;    0,000;88,00000
 320,41;  -16,400;  -60,000;    0,000;43,60000
 320,43;   58,400;  282,000;    0,000;-223,60000
 320,45;   -7,400; -493,000;    0,000;485,60000
 320,46;   24,800; -447,000;    0,000;471,80000
 320,48;   19,200;  157,000;    0,000;-137,80000
 320,50;   -1,800;  154,000;    0,000;-155,80000
 320,52;  -14,400;  -45,000;    0,000;30,60000
 320,54;   -1,800;   92,000;    0,000;-93,80000
 320,56;   10,400;  326,000;    0,000;-315,60000
 320,58;   29,800;  929,000;    0,000;-899,20000
 320,60;    8,800;  -33,000;    0,000;41,80000
 320,62;   39,600;   20,000;    0,000;19,60000
 320,64;    8,600;  104,000;    0,000;-95,40000
 320,65;   -1,000;   85,000;    0,000;-86,00000
 320,67;   -7,200; -596,000;    0,000;588,80000
 320,69;    2,600; -216,000;    0,000;218,60000
 320,71;    8,200;  306,000;    0,000;-297,80000
 320,73;    4,000;   26,000;    0,000;-22,00000
 320,75;  -20,000; -446,000;    0,000;426,00000
 320,77;   34,400; -470,000;    0,000;504,40000
 320,79;   -7,800;   12,000;    0,000;-19,80000
 320,81;   27,000;  115,000;    0,000;-88,00000
 320,83;   -9,600; -125,000;    0,000;115,40000
 320,84;   64,200;  189,000;    0,000;-124,80000
 320,86;   16,600;  431,000;    0,000;-414,40000
 320,88;   21,000;   28,000;    0,000;-7,00000
 320,90;    2,800; -115,000;    0,000;117,80000
 320,92;   14,600;   70,000;    0,000;-55,40000
 320,94;   -0,800;  -54,000;    0,000;53,20000
 320,96;   -9,200;  198,000;    0,000;-207,20000
 320,98;   29,800; -478,000;    0,000;507,80000
 321,00;  -15,600; -187,000;    0,000;171,40000
 321,01;   26,600;  609,000;    0,000;-582,40000
 321,03;  -30,600;  -89,000;    0,000;58,40000
 321,05;    4,800;  -19,000;    0,000;23,80000
 321,07;  -14,800; -291,000;    0,000;276,20000
 321,09;    8,800;  402,000;    0,000;-393,20000
 321,11;  -13,000;  353,000;    0,000;-366,00000
 321,13;   25,600; -477,000;    0,000;502,60000
 321,15;    4,200;  -21,000;    0,000;25,20000
 321,17;   21,400;  188,000;    0,000;-166,60000
 321,18;   19,600;    1,000;    0,000;18,60000
 321,20;    8,600; -428,000;    0,000;436,60000
 321,22;   50,000;  264,000;    0,000;-214,00000
 321,24;    5,600;  135,000;    0,000;-129,40000
 321,26;    7,000;  204,000;    0,000;-197,00000
 321,28;   -3,200; -288,000;    0,000;284,80000
 321,30;   38,800;   64,000;    0,000;-25,20000
 321,32;    9,000; -164,000;    0,000;173,00000
 321,34;   13,400;  362,000;    0,000;-348,60000
 321,35;  -25,400; -448,000;    0,000;422,60000
 321,37;   26,600;  -48,000;    0,000;74,60000
 321,39;    1,200; -366,000;    0,000;367,20000
 321,41;    5,800;  434,000;    0,000;-428,20000
 321,43;   -3,400; -103,000;    0,000;99,60000
 321,45;    7,000; -164,000;    0,000;171,00000
 321,47;  -12,000;  276,000;    0,000;-288,00000
 321,49;   -0,400;  179,000;    0,000;-179,40000
 321,51;   -2,600; -603,000;    0,000;600,40000
 321,52;   46,000;  347,000;    0,000;-301,00000
 321,54;  -15,600;   50,000;    0,000;-65,60000
 321,56;   30,800;  140,000;    0,000;-109,20000
 321,58;   -7,600; -423,000;    0,000;415,40000
 321,60;   -9,000; -151,000;    0,000;142,00000
 321,62;    6,000; -173,000;    0,000;179,00000
 321,64;   51,600;  441,000;    0,000;-389,40000
 321,66;    0,800; -410,000;    0,000;410,80000
 321,67;  -11,000; -251,000;    0,000;240,00000
 321,69;  -13,600;  -86,000;    0,000;72,40000
 321,71;    2,200;   72,000;    0,000;-69,80000
 321,73;   31,200;  318,000;    0,000;-286,80000
 321,75;    4,800;  683,000;    0,000;-678,20000
 321,77;  -21,400;  134,000;    0,000;-155,40000
 321,79;  -11,800;  425,000;    0,000;-436,80000
 321,81;   11,000; -274,000;    0,000;285,00000
 321,83;    4,200; -225,000;    0,000;229,20000
 321,84;   24,400;  207,000;    0,000;-182,60000
 321,86;   27,600;  607,000;    0,000;-579,40000
 321,88;    7,800;  172,000;    0,000;-164,20000
 321,90;   55,600;  189,000;    0,000;-133,40000
 321,92;    4,400;   99,000;    0,000;-94,60000
 321,94;   12,200;  -14,000;    0,000;26,20000
 321,96;  -16,800; -151,000;    0,000;134,20000
 321,98;   50,400;  142,000;    0,000;-91,60000
 321,99;   20,800;    2,000;    0,000;18,80000
 322,01;    3,200;  114,000;    0,000;-110,80000
 322,03;   49,200; -247,000;    0,000;296,20000
 322,05;   13,000; -281,000;    0,000;294,00000
 322,07;  -17,000;   95,000;    0,000;-112,00000
 322,09;   18,800;   -3,000;    0,000;21,80000
 322,11;    1,200; -277,000;    0,000;278,20000
 322,13;    4,000;  -25,000;    0,000;29,00000
 322,14;   -4,200;  -61,000;    0,000;56,80000
 322,16;   24,200;  -28,000;    0,000;52,20000
 322,18;  -18,800; -616,000;    0,000;597,20000
 322,20;   23,600;  -86,000;    0,000;109,60000
 322,22;   37,400;  105,000;    0,000;-67,60000
 322,24;   26,600;  772,000;    0,000;-745,40000
 322,26;   35,000;  -38,000;    0,000;73,00000
 322,28;    0,400;   24,000;    0,000;-23,60000
 322,29;   26,800;  383,000;    0,000;-356,20000
 322,31;   39,400;  157,000;    0,000;-117,60000
 322,33;   45,200; -348,000;    0,000;393,20000
 322,35;    5,400;  235,000;    0,000;-229,60000
 322,37;  -15,200;   92,000;    0,000;-107,20000
 322,39;   42,200;  354,000;    0,000;-311,80000
 322,41;  -10,600; -450,000;    0,000;439,40000
 322,43;   25,000; -280,000;    0,000;305,00000
 322,44;  -26,400;  -11,000;    0,000;-15,40000
 322,46;  -16,000;   80,000;    0,000;-96,00000
 322,48;   15,800;  -77,000;    0,000;92,80000
 322,50;   -4,200;   91,000;    0,000;-95,20000
 322,52;  -27,400;  404,000;    0,000;-431,40000
 322,54;   28,000;  131,000;    0,000;-103,00000
 322,56;   27,800; -218,000;    0,000;245,80000
 322,58;   37,600;  104,000;    0,000;-66,40000
 322,59;   -4,000; -237,000;    0,000;233,00000
 322,61;    8,800;  978,000;    0,000;-969,20000
 322,63;   22,800; -213,000;    0,000;235,80000
 322,65;    2,400;  137,000;    0,000;-134,60000
 322,67;   27,800;  126,000;    0,000;-98,20000
 322,69;   44,400;  594,000;    0,000;-549,60000
 322,71;   15,000; -243,000;    0,000;258,00000
 322,73;    9,400;    2,000;    0,000; 7,40000
 322,74;  -12,800;  274,000;    0,000;-286,80000
 322,76;   14,000;  455,000;    0,000;-441,00000
 322,78;   -9,000; -103,000;    0,000;94,00000
 322,80;  -10,000;  143,000;    0,000;-153,00000
 322,82;    7,200;  305,000;    0,000;-297,80000
 322,84;    5,200;  649,000;    0,000;-643,80000
 322,86;   10,600;   69,000;    0,000;-58,40000
 322,87;    6,000; -149,000;    0,000;155,00000
 322,89;   -8,000;  121,000;    0,000;-129,00000
 322,91;   -4,800;  477,000;    0,000;-481,80000
 322,93;   33,000; -314,000;    0,000;347,00000
 322,95;   30,800; 1423,000;    0,000;-1392,20000
 322,97;    5,600;  157,000;    0,000;-151,40000
 322,99;  -25,200;  385,000;    0,000;-410,20000
 323,01;    4,400;  224,000;    0,000;-219,60000
 323,02;  -11,200;  277,000;    0,000;-288,20000
 323,04;   -8,400;  481,000;    0,000;-489,40000
 323,06;   -9,000;  793,000;    0,000;-802,00000
 323,08;   19,400;  -10,000;    0,000;29,40000
 323,10;   22,600;  -22,000;    0,000;44,60000
 323,12;   -5,800;  816,000;    0,000;-821,80000
 323,14;   10,600;  385,000;    0,000;-374,40000
 323,15;   14,000; -334,000;    0,000;348,00000
 323,17;   14,400;  557,000;    0,000;-542,60000
 323,19;   12,400;  321,000;    0,000;-308,60000
 323,21;   -7,000;  224,000;    0,000;-231,00000
 323,23;  -14,800; -234,000;    0,000;219,20000
 323,25;    6,400; -173,000;    0,000;179,40000
 323,27;   35,800;  278,000;    0,000;-242,20000
 323,29;   10,200;  721,000;    0,000;-710,80000
 323,30;    4,800; -152,000;    0,000;156,80000
 323,32;   38,800;  699,000;    0,000;-660,20000
 323,34;    3,400;  313,000;    0,000;-309,60000
 323,36;   37,400;  349,000;    0,000;-311,60000
 323,38;   27,600;   64,000;    0,000;-36,40000
 323,40;   17,200;  314,000;    0,000;-296,80000
 323,42;    7,600;  251,000;    0,000;-243,40000
 323,43;   21,400;  179,000;    0,000;-157,60000
 323,45;  -23,600; -164,000;    0,000;140,40000
 323,47;   47,200;  644,000;    0,000;-596,80000
 323,49;   26,200;   55,000;    0,000;-28,80000
 323,51;   14,400;  696,000;    0,000;-681,60000
 323,53;   26,800;  161,000;    0,000;-134,20000
 323,55;   11,400;   74,000;    0,000;-62,60000
 323,56;   21,000;  298,000;    0,000;-277,00000
 323,58;   33,200;  576,000;    0,000;-542,80000
 323,60;    4,600;  212,000;    0,000;-207,40000
 323,62;   29,200;  599,000;    0,000;-569,80000
 323,64;  -28,000;  623,000;    0,000;-651,00000
 323,66;   27,800;  997,000;    0,000;-969,20000
 323,68;  -17,600; -264,000;    0,000;246,40000
 323,69;   30,800;  258,000;    0,000;-227,20000
 323,71;   -1,200; 1283,000;    0,000;-1284,20000
 323,73;   -3,200;  424,000;    0,000;-427,20000
 323,75;    1,600; -188,000;    0,000;189,60000
 323,77;   14,000;  528,000;    0,000;-514,00000
 323,79;  -10,800;  551,000;    0,000;-561,80000
 323,81;   58,800; 1160,000;    0,000;-1101,20000
 323,82;   33,000; -258,000;    0,000;291,00000
 323,84;   58,800;  334,000;    0,000;-275,20000
 323,86;    0,400;  892,000;    0,000;-891,60000
 323,88;   -2,600;  928,000;    0,000;-930,60000
 323,90;    8,800; -260,000;    0,000;268,80000
 323,92;   13,800;  577,000;    0,000;-563,20000
 323,94;   10,000;  335,000;    0,000;-325,00000
 323,95;   16,600;  870,000;    0,000;-853,40000
 323,97;   11,400;  220,000;    0,000;-208,60000
 323,99;   48,600;  378,000;    0,000;-329,40000
 324,01;   26,000;   60,000;    0,000;-34,00000
 324,03;   31,200;  612,000;    0,000;-580,80000
 324,05;   18,400; -115,000;    0,000;133,40000
 324,06;   34,200;  812,000;    0,000;-777,80000
 324,08;   47,600;  659,000;    0,000;-611,40000
 324,10;   18,200;  578,000;    0,000;-559,80000
 324,12;   -6,200;  398,000;    0,000;-404,20000
 324,14;   54,200;  177,000;    0,000;-122,80000
 324,16;  -10,800;  360,000;    0,000;-370,80000
 324,18;   58,200;  856,000;    0,000;-797,80000
 324,19;   38,400;  465,000;    0,000;-426,60000
 324,21;   14,200;  377,000;    0,000;-362,80000
 324,23;   42,200;  288,000;    0,000;-245,80000
 324,25;   52,200;  386,000;    0,000;-333,80000
 324,27;   18,400;  518,000;    0,000;-499,60000
 324,29;   31,400;  103,000;    0,000;-71,60000
 324,31;   15,200;  612,000;    0,000;-596,80000
 324,32;   37,200;  876,000;    0,000;-838,80000
 324,34;   29,800; -271,000;    0,000;300,80000
 324,36;   30,400;  295,000;    0,000;-264,60000
 324,38;    2,800;  745,000;    0,000;-742,20000
 324,40;   32,400;  734,000;    0,000;-701,60000
 324,42;   24,600;  -68,000;    0,000;92,60000
 324,43;   46,000;  929,000;    0,000;-883,00000
 324,45;   43,000;  261,000;    0,000;-218,00000
 324,47;   56,000;  837,000;    0,000;-781,00000
 324,49;   42,400;  357,000;    0,000;-314,60000
 324,51;   63,200;  684,000;    0,000;-620,80000
 324,53;   44,000;  664,000;    0,000;-620,00000
 324,55;   70,800;  797,000;    0,000;-726,20000
 324,56;   60,200;   12,000;    0,000;48,20000
 324,58;   80,600;  435,000;    0,000;-354,40000
 324,60;   23,400;  404,000;    0,000;-380,60000
 324,62;   56,400;  976,000;    0,000;-919,60000
 324,64;   54,000;  418,000;    0,000;-364,00000
 324,66;   76,000; 1184,000;    0,000;-1108,00000
 324,67;   55,400;  491,000;    0,000;-435,60000
 324,69;   85,800;  746,000;    0,000;-660,20000
 324,71;   68,600;   48,000;    0,000;20,60000
 324,73;   62,200;  403,000;    0,000;-340,80000
 324,75;   88,800;  378,000;    0,000;-289,20000
 324,77;   45,400; 1098,000;    0,000;-1052,60000
 324,79;   55,600;  123,000;    0,000;-67,40000
 324,80;   81,200;  396,000;    0,000;-314,80000
 324,82;   74,200;   79,000;    0,000;-4,80000
 324,84;   71,400;  575,000;    0,000;-503,60000
 324,86;  116,600;  213,000;    0,000;-96,40000
 324,88;  116,400;  564,000;    0,000;-447,60000
 324,90;   91,200;  520,000;    0,000;-428,80000
 324,91;  140,000;  594,000;    0,000;-454,00000
 324,93;  126,400;  537,000;    0,000;-410,60000
 324,95;  118,200;  367,000;    0,000;-248,80000
 324,97;   86,200;  250,000;    0,000;-163,80000
 324,99;  154,400;  238,000;    0,000;-83,60000
 325,01;  101,000;  221,000;    0,000;-120,00000
 325,02;  137,600;  733,000;    0,000;-595,40000
 325,04;  108,200;  189,000;    0,000;-80,80000
 325,06;  165,600;  425,000;    0,000;-259,40000
 325,08;  147,400;  333,000;    0,000;-185,60000
 325,10;  185,200;  369,000;    0,000;-183,80000
 325,12;  294,200;  350,000;    0,000;-55,80000
 325,13;  474,600;  807,000;    0,000;-332,40000
 325,15;  720,600;  262,000;    0,000;458,60000
 325,17;  697,800; 1127,000;    0,000;-429,20000
 325,19;  414,600;  892,000;    0,000;-477,40000
 325,21;  206,600;  567,000;    0,000;-360,40000
 325,23;  117,600;  115,000;    0,000; 2,60000
 325,25;  110,400;  427,000;    0,000;-316,60000
 325,26;  119,000;  479,000;    0,000;-360,00000
 325,28;  107,200;  688,000;    0,000;-580,80000
