
Integration time [ms]:   1,000
Averaging Nr. [scans]: 1000
Smoothing Nr. [pixels]: 0
Data measured with spectrometer [name]: 1804345U2
Wave   ;Sample   ;Dark     ;Reference;Scope Corrected for Dark
[nm]   ;[counts] ;[counts] ;[counts] 

 318,09;   -1,894;  -26,700;    0,000;24,80600
 318,11;    0,008;    7,900;    0,000;-7,89200
 318,13;    3,553;   26,200;    0,000;-22,64700
 318,15;    0,649;  -33,700;    0,000;34,34900
 318,16;    1,895;  -27,000;    0,000;28,89500
 318,18;   -0,307;   24,600;    0,000;-24,90700
 318,20;    3,266;  -16,900;    0,000;20,16600
 318,22;   -1,309;  -18,900;    0,000;17,59100
 318,24;    2,119;  -15,000;    0,000;17,11900
 318,26;    0,578;   39,000;    0,000;-38,42200
 318,28;    1,540;    4,100;    0,000;-2,56000
 318,30;    0,320;    9,000;    0,000;-8,68000
 318,32;    0,527;   10,100;    0,000;-9,57300
 318,34;    0,153;   25,300;    0,000;-25,14700
 318,36;    1,805;   -3,300;    0,000; 5,10500
 318,38;    2,022;   49,500;    0,000;-47,47800
 318,40;    0,704;   29,500;    0,000;-28,79600
 318,42;    0,968;  -40,900;    0,000;41,86800
 318,43;    0,284;   -4,000;    0,000; 4,28400
 318,45;    2,317;    5,200;    0,000;-2,88300
 318,47;    2,426;  -25,900;    0,000;28,32600
 318,49;    1,299;   30,900;    0,000;-29,60100
 318,51;    2,381;   34,300;    0,000;-31,91900
 318,53;    0,933;   38,100;    0,000;-37,16700
 318,55;    1,014;   17,200;    0,000;-16,18600
 318,57;    0,622;   38,200;    0,000;-37,57800
 318,59;    3,247;   -6,200;    0,000; 9,44700
 318,61;    0,205;  -47,400;    0,000;47,60500
 318,63;   -0,255;  -25,700;    0,000;25,44500
 318,65;    0,631;  -44,500;    0,000;45,13100
 318,67;    2,472;  -17,100;    0,000;19,57200
 318,68;   -0,453;   15,900;    0,000;-16,35300
 318,70;    0,925;  -35,900;    0,000;36,82500
 318,72;    0,874;   45,600;    0,000;-44,72600
 318,74;    1,817;  -49,600;    0,000;51,41700
 318,76;    1,810;   74,200;    0,000;-72,39000
 318,78;    3,431;   49,800;    0,000;-46,36900
 318,80;    0,864;   18,600;    0,000;-17,73600
 318,82;    1,615;  -21,500;    0,000;23,11500
 318,84;    2,446;    2,200;    0,000; 0,24600
 318,86;    1,686;  -10,600;    0,000;12,28600
 318,88;    1,426;  -15,300;    0,000;16,72600
 318,90;    2,474;    4,100;    0,000;-1,62600
 318,92;    0,666;   21,300;    0,000;-20,63400
 318,93;   -0,210;   32,200;    0,000;-32,41000
 318,95;    0,182;   23,600;    0,000;-23,41800
 318,97;    1,817;  -13,400;    0,000;15,21700
 318,99;   -0,136;    0,900;    0,000;-1,03600
 319,01;    1,122;    1,800;    0,000;-0,67800
 319,03;    1,208;  -52,000;    0,000;53,20800
 319,05;    1,923;   15,000;    0,000;-13,07700
 319,07;   -2,883;  -60,900;    0,000;58,01700
 319,09;    4,201;   33,200;    0,000;-28,99900
 319,11;    0,495;  -23,600;    0,000;24,09500
 319,13;    2,688;   66,300;    0,000;-63,61200
 319,15;   -1,305;  -19,500;    0,000;18,19500
 319,17;    2,644;  -10,400;    0,000;13,04400
 319,18;   -2,560;  -15,500;    0,000;12,94000
 319,20;    0,727;   21,300;    0,000;-20,57300
 319,22;   -1,058;   15,200;    0,000;-16,25800
 319,24;    0,091;    7,400;    0,000;-7,30900
 319,26;    1,418;   42,200;    0,000;-40,78200
 319,28;    1,962;   15,100;    0,000;-13,13800
 319,30;    1,420;   42,600;    0,000;-41,18000
 319,32;    3,046;  -13,600;    0,000;16,64600
 319,34;    1,757;   34,500;    0,000;-32,74300
 319,36;    2,162;  -45,800;    0,000;47,96200
 319,38;    1,865;   15,500;    0,000;-13,63500
 319,40;    3,371;  -51,800;    0,000;55,17100
 319,41;    1,397;   10,900;    0,000;-9,50300
 319,43;    1,284;   14,500;    0,000;-13,21600
 319,45;    1,822;   47,600;    0,000;-45,77800
 319,47;    0,401;  -42,800;    0,000;43,20100
 319,49;   -0,034;  -46,700;    0,000;46,66600
 319,51;    1,955;  -12,900;    0,000;14,85500
 319,53;    1,507;  -16,400;    0,000;17,90700
 319,55;    1,437;   45,500;    0,000;-44,06300
 319,57;    0,117;  -14,900;    0,000;15,01700
 319,59;    3,845;   10,500;    0,000;-6,65500
 319,61;   -0,021;  -18,600;    0,000;18,57900
 319,62;    1,404;    0,500;    0,000; 0,90400
 319,64;    0,275;   33,600;    0,000;-33,32500
 319,66;    2,211;    3,600;    0,000;-1,38900
 319,68;    2,158;   17,100;    0,000;-14,94200
 319,70;    0,872;  -54,000;    0,000;54,87200
 319,72;    0,630;   35,000;    0,000;-34,37000
 319,74;    2,008;   21,300;    0,000;-19,29200
 319,76;   -0,878;  -25,200;    0,000;24,32200
 319,78;    0,264;  -12,500;    0,000;12,76400
 319,80;    0,626;  -15,900;    0,000;16,52600
 319,82;    2,676;    9,800;    0,000;-7,12400
 319,83;   -0,090;   -2,700;    0,000; 2,61000
 319,85;    1,355;  -38,900;    0,000;40,25500
 319,87;   -0,284;   -8,000;    0,000; 7,71600
 319,89;    2,752;  -15,800;    0,000;18,55200
 319,91;   -0,373;  -16,000;    0,000;15,62700
 319,93;    3,815;   39,800;    0,000;-35,98500
 319,95;    0,763;  -29,400;    0,000;30,16300
 319,97;    0,775;  -37,100;    0,000;37,87500
 319,99;   -0,209;  -34,600;    0,000;34,39100
 320,01;    3,288;   31,000;    0,000;-27,71200
 320,03;    0,787;  -41,500;    0,000;42,28700
 320,04;    4,647;   22,100;    0,000;-17,45300
 320,06;   -1,085;   23,700;    0,000;-24,78500
 320,08;    3,020;  -29,900;    0,000;32,92000
 320,10;    1,073;   79,800;    0,000;-78,72700
 320,12;    3,923;  -14,300;    0,000;18,22300
 320,14;    0,160;  -15,400;    0,000;15,56000
 320,16;    1,060;   21,100;    0,000;-20,04000
 320,18;   -1,239;   16,800;    0,000;-18,03900
 320,20;    1,538;  -26,600;    0,000;28,13800
 320,22;    2,997;  -16,000;    0,000;18,99700
 320,24;    2,954;  -40,100;    0,000;43,05400
 320,25;    0,123;   55,000;    0,000;-54,87700
 320,27;    1,497;   22,500;    0,000;-21,00300
 320,29;   -0,305;    3,600;    0,000;-3,90500
 320,31;    0,374;  -14,400;    0,000;14,77400
 320,33;   -0,593;   48,700;    0,000;-49,29300
 320,35;    1,823;   -5,700;    0,000; 7,52300
 320,37;    2,754;  -31,000;    0,000;33,75400
 320,39;    1,484;  -36,400;    0,000;37,88400
 320,41;    1,759;  -12,200;    0,000;13,95900
 320,43;    2,029;   -4,500;    0,000; 6,52900
 320,44;    1,953;  -20,800;    0,000;22,75300
 320,46;    3,182;   28,400;    0,000;-25,21800
 320,48;    1,264;    5,300;    0,000;-4,03600
 320,50;    3,937;   31,700;    0,000;-27,76300
 320,52;    3,691;  -27,300;    0,000;30,99100
 320,54;    2,400;   35,900;    0,000;-33,50000
 320,56;   -0,321;   21,100;    0,000;-21,42100
 320,58;    0,299;   80,600;    0,000;-80,30100
 320,60;   -1,411;  -32,500;    0,000;31,08900
 320,62;    1,450;  -71,300;    0,000;72,75000
 320,64;    0,500;  -17,500;    0,000;18,00000
 320,65;    1,881;  -38,600;    0,000;40,48100
 320,67;    0,738;  -30,800;    0,000;31,53800
 320,69;    3,124;   75,200;    0,000;-72,07600
 320,71;    3,036;   72,700;    0,000;-69,66400
 320,73;    4,209;   27,500;    0,000;-23,29100
 320,75;    1,797;   36,000;    0,000;-34,20300
 320,77;    4,472;  -16,200;    0,000;20,67200
 320,79;    5,587;  -31,200;    0,000;36,78700
 320,81;    4,669;  -20,800;    0,000;25,46900
 320,83;    1,755;   -2,700;    0,000; 4,45500
 320,84;    3,243;   79,600;    0,000;-76,35700
 320,86;    2,832;  -20,600;    0,000;23,43200
 320,88;    0,699;  -60,100;    0,000;60,79900
 320,90;    3,700;  -38,400;    0,000;42,10000
 320,92;    1,776;  -24,600;    0,000;26,37600
 320,94;    2,170;   21,100;    0,000;-18,93000
 320,96;    2,556;  -26,700;    0,000;29,25600
 320,98;    0,881;   14,000;    0,000;-13,11900
 321,00;    1,690;   -4,000;    0,000; 5,69000
 321,01;    0,846;   21,200;    0,000;-20,35400
 321,03;    2,001;   17,100;    0,000;-15,09900
 321,05;   -0,342;   31,700;    0,000;-32,04200
 321,07;    2,858;  -34,600;    0,000;37,45800
 321,09;    0,773;    2,100;    0,000;-1,32700
 321,11;    2,638;  -13,600;    0,000;16,23800
 321,13;    3,154;  -46,100;    0,000;49,25400
 321,15;    2,723;  -12,200;    0,000;14,92300
 321,17;    3,158;   67,600;    0,000;-64,44200
 321,19;    2,892;    0,800;    0,000; 2,09200
 321,20;    2,223;  -21,700;    0,000;23,92300
 321,22;    2,672;    1,700;    0,000; 0,97200
 321,24;    2,098;  -16,100;    0,000;18,19800
 321,26;    0,970;  -36,300;    0,000;37,27000
 321,28;    2,786;  -26,200;    0,000;28,98600
 321,30;    3,524;   18,900;    0,000;-15,37600
 321,32;    1,712;   18,400;    0,000;-16,68800
 321,34;    3,050;  -26,100;    0,000;29,15000
 321,36;   -0,476;   -5,600;    0,000; 5,12400
 321,37;    2,654;   61,400;    0,000;-58,74600
 321,39;    1,138;  -16,200;    0,000;17,33800
 321,41;    5,402;   15,200;    0,000;-9,79800
 321,43;    2,841;  -13,500;    0,000;16,34100
 321,45;    3,584;   37,200;    0,000;-33,61600
 321,47;    2,431;    1,100;    0,000; 1,33100
 321,49;    3,284;    9,900;    0,000;-6,61600
 321,51;    0,407;    1,200;    0,000;-0,79300
 321,53;    2,098;   31,000;    0,000;-28,90200
 321,54;    1,537;  -25,100;    0,000;26,63700
 321,56;    3,218;  -23,600;    0,000;26,81800
 321,58;    1,209;  -21,200;    0,000;22,40900
 321,60;    6,624;   38,400;    0,000;-31,77600
 321,62;    2,697;   26,900;    0,000;-24,20300
 321,64;    4,730;   -2,200;    0,000; 6,93000
 321,66;    0,225;   -2,100;    0,000; 2,32500
 321,68;    3,481;   45,500;    0,000;-42,01900
 321,70;    2,671;   26,300;    0,000;-23,62900
 321,71;    2,146;  -28,100;    0,000;30,24600
 321,73;    1,107;    7,900;    0,000;-6,79300
 321,75;    3,826;   -8,600;    0,000;12,42600
 321,77;    1,211;   -8,700;    0,000; 9,91100
 321,79;    3,352;    6,300;    0,000;-2,94800
 321,81;    1,851;   -1,700;    0,000; 3,55100
 321,83;    2,770;    5,100;    0,000;-2,33000
 321,85;    3,368;   26,300;    0,000;-22,93200
 321,87;    5,024;   -7,700;    0,000;12,72400
 321,88;    0,050;   11,700;    0,000;-11,65000
 321,90;    3,257;   28,700;    0,000;-25,44300
 321,92;    1,708;    8,600;    0,000;-6,89200
 321,94;    4,457;   16,800;    0,000;-12,34300
 321,96;    1,734;   14,800;    0,000;-13,06600
 321,98;    2,303;   54,900;    0,000;-52,59700
 322,00;    2,022;   54,800;    0,000;-52,77800
 322,02;    1,973;   -5,000;    0,000; 6,97300
 322,04;    1,074;  -65,300;    0,000;66,37400
 322,05;    3,441;  -21,900;    0,000;25,34100
 322,07;   -0,256;  -55,100;    0,000;54,84400
 322,09;    1,680;  -32,700;    0,000;34,38000
 322,11;    1,640;  -12,900;    0,000;14,54000
 322,13;    3,821;   10,100;    0,000;-6,27900
 322,15;    3,025;   58,800;    0,000;-55,77500
 322,17;    1,805;  -20,600;    0,000;22,40500
 322,19;    0,060;  -58,200;    0,000;58,26000
 322,20;    4,007;   -4,300;    0,000; 8,30700
 322,22;    2,220;   44,300;    0,000;-42,08000
 322,24;    2,113;  -13,500;    0,000;15,61300
 322,26;    0,947;  -23,000;    0,000;23,94700
 322,28;    5,469;  -13,700;    0,000;19,16900
 322,30;    0,779;    4,200;    0,000;-3,42100
 322,32;    2,501;  -53,300;    0,000;55,80100
 322,34;    2,791;  -46,700;    0,000;49,49100
 322,36;    3,847;    4,200;    0,000;-0,35300
 322,37;    0,914;    4,500;    0,000;-3,58600
 322,39;    3,149;   -9,800;    0,000;12,94900
 322,41;    2,588;   29,000;    0,000;-26,41200
 322,43;    5,137;    7,900;    0,000;-2,76300
 322,45;    1,916;   38,600;    0,000;-36,68400
 322,47;    2,751;   21,000;    0,000;-18,24900
 322,49;    0,870;  -64,900;    0,000;65,77000
 322,51;    3,460;  -11,300;    0,000;14,76000
 322,52;    1,582;  -38,600;    0,000;40,18200
 322,54;    3,561;  -17,700;    0,000;21,26100
 322,56;    1,184; -105,300;    0,000;106,48400
 322,58;    4,255;   -3,800;    0,000; 8,05500
 322,60;    3,754;  -48,500;    0,000;52,25400
 322,62;    2,456;   27,400;    0,000;-24,94400
 322,64;    1,870;   16,100;    0,000;-14,23000
 322,66;    5,083;   10,800;    0,000;-5,71700
 322,67;    2,867;   71,100;    0,000;-68,23300
 322,69;    4,883;   22,500;    0,000;-17,61700
 322,71;    2,877;  -24,700;    0,000;27,57700
 322,73;    4,640;   36,600;    0,000;-31,96000
 322,75;    3,765;   16,800;    0,000;-13,03500
 322,77;    3,608;   27,900;    0,000;-24,29200
 322,79;    2,406;   19,400;    0,000;-16,99400
 322,81;    3,010;   64,600;    0,000;-61,59000
 322,82;    1,944;  -55,800;    0,000;57,74400
 322,84;    3,545;   18,900;    0,000;-15,35500
 322,86;    3,446;  -30,800;    0,000;34,24600
 322,88;    4,413;   -8,300;    0,000;12,71300
 322,90;    2,280;   40,400;    0,000;-38,12000
 322,92;    2,992;   16,800;    0,000;-13,80800
 322,94;    2,410;  -56,400;    0,000;58,81000
 322,96;    3,279;  -15,100;    0,000;18,37900
 322,97;    3,569;   -1,200;    0,000; 4,76900
 322,99;    3,795;    1,300;    0,000; 2,49500
 323,01;    2,220;   -6,000;    0,000; 8,22000
 323,03;    3,192;   30,800;    0,000;-27,60800
 323,05;    0,396;   53,700;    0,000;-53,30400
 323,07;    4,717;    0,400;    0,000; 4,31700
 323,09;    3,746;    0,500;    0,000; 3,24600
 323,11;    2,645;   33,100;    0,000;-30,45500
 323,12;    4,989;  -11,500;    0,000;16,48900
 323,14;    3,111;  -29,800;    0,000;32,91100
 323,16;    1,227;   -6,900;    0,000; 8,12700
 323,18;    5,115;  -28,300;    0,000;33,41500
 323,20;    2,115;   23,400;    0,000;-21,28500
 323,22;    5,425;   30,700;    0,000;-25,27500
 323,24;    3,707;  -51,100;    0,000;54,80700
 323,25;    4,517;   10,800;    0,000;-6,28300
 323,27;    2,111;  -39,800;    0,000;41,91100
 323,29;    5,063;   32,600;    0,000;-27,53700
 323,31;    0,928;  -44,300;    0,000;45,22800
 323,33;    3,262;   17,900;    0,000;-14,63800
 323,35;    4,728;    3,100;    0,000; 1,62800
 323,37;    5,807;   -6,200;    0,000;12,00700
 323,39;    1,610;   34,800;    0,000;-33,19000
 323,40;    4,871;   -9,800;    0,000;14,67100
 323,42;    2,870;    3,500;    0,000;-0,63000
 323,44;    4,547;   55,500;    0,000;-50,95300
 323,46;    4,172;  -14,400;    0,000;18,57200
 323,48;    3,177;   24,700;    0,000;-21,52300
 323,50;    2,457;    4,700;    0,000;-2,24300
 323,52;    4,723;    9,500;    0,000;-4,77700
 323,53;    1,845;  -47,100;    0,000;48,94500
 323,55;    4,979;   -3,000;    0,000; 7,97900
 323,57;    5,485;   29,200;    0,000;-23,71500
 323,59;    3,634;  -28,100;    0,000;31,73400
 323,61;    4,783;   -0,400;    0,000; 5,18300
 323,63;    6,290;   64,100;    0,000;-57,81000
 323,65;    2,727;  -11,400;    0,000;14,12700
 323,67;    5,400;   44,900;    0,000;-39,50000
 323,68;    3,243;   31,500;    0,000;-28,25700
 323,70;    4,508;   26,000;    0,000;-21,49200
 323,72;    3,060;   -0,700;    0,000; 3,76000
 323,74;    4,833;  -23,000;    0,000;27,83300
 323,76;    4,268;  -46,300;    0,000;50,56800
 323,78;    6,295;   22,800;    0,000;-16,50500
 323,80;    2,235;   -4,500;    0,000; 6,73500
 323,81;    4,603;  -36,000;    0,000;40,60300
 323,83;    4,544;   23,700;    0,000;-19,15600
 323,85;    5,479;    6,000;    0,000;-0,52100
 323,87;    4,712;  -26,400;    0,000;31,11200
 323,89;    4,671;  -35,500;    0,000;40,17100
 323,91;    3,099;  -59,200;    0,000;62,29900
 323,93;    7,663;  -29,400;    0,000;37,06300
 323,94;    6,653;  -43,000;    0,000;49,65300
 323,96;    6,180;   17,400;    0,000;-11,22000
 323,98;    3,781;  -71,100;    0,000;74,88100
 324,00;    5,133;   -2,900;    0,000; 8,03300
 324,02;    4,955;  -20,400;    0,000;25,35500
 324,04;    7,987;   43,600;    0,000;-35,61300
 324,06;    3,286; -113,500;    0,000;116,78600
 324,07;    4,967;  -14,800;    0,000;19,76700
 324,09;    5,370;   19,200;    0,000;-13,83000
 324,11;    5,981;  -12,300;    0,000;18,28100
 324,13;    5,917;  -41,000;    0,000;46,91700
 324,15;    8,300;    0,000;    0,000; 8,30000
 324,17;    6,515;   26,900;    0,000;-20,38500
 324,19;   10,849;    3,200;    0,000; 7,64900
 324,20;   11,669;    1,700;    0,000; 9,96900
 324,22;   15,335;   22,600;    0,000;-7,26500
 324,24;    9,506;   -3,300;    0,000;12,80600
 324,26;   10,668;   -8,200;    0,000;18,86800
 324,28;   10,748;  -33,000;    0,000;43,74800
 324,30;   13,357;   21,700;    0,000;-8,34300
 324,32;    9,379;    0,200;    0,000; 9,17900
 324,33;   11,073;  -38,500;    0,000;49,57300
 324,35;    7,795;    6,500;    0,000; 1,29500
 324,37;   11,321;  -21,100;    0,000;32,42100
 324,39;    8,665;  -29,300;    0,000;37,96500
 324,41;   11,914;   13,600;    0,000;-1,68600
 324,43;   12,198;  -46,800;    0,000;58,99800
 324,45;   15,960;   39,800;    0,000;-23,84000
 324,46;   11,466;  -40,200;    0,000;51,66600
 324,48;   15,014;  -25,700;    0,000;40,71400
 324,50;   20,572;  -28,400;    0,000;48,97200
 324,52;   17,971;   65,700;    0,000;-47,72900
 324,54;   13,875;   23,200;    0,000;-9,32500
 324,56;   15,564;   51,700;    0,000;-36,13600
 324,58;   16,005;    3,000;    0,000;13,00500
 324,59;   19,396;    7,700;    0,000;11,69600
 324,61;   20,198;  -17,500;    0,000;37,69800
 324,63;   22,248;   11,000;    0,000;11,24800
 324,65;   17,944;  -51,300;    0,000;69,24400
 324,67;   22,161;   35,200;    0,000;-13,03900
 324,69;   21,392;  -11,200;    0,000;32,59200
 324,71;   22,699;   -8,100;    0,000;30,79900
 324,72;   16,942;  -51,400;    0,000;68,34200
 324,74;   22,239;   19,000;    0,000; 3,23900
 324,76;   20,429;    2,800;    0,000;17,62900
 324,78;   25,874;   -9,200;    0,000;35,07400
 324,80;   28,491;   32,400;    0,000;-3,90900
 324,82;   26,079;  -14,400;    0,000;40,47900
 324,83;   28,648;    6,700;    0,000;21,94800
 324,85;   39,289;  -37,800;    0,000;77,08900
 324,87;   45,139;  -44,600;    0,000;89,73900
 324,89;   52,574;    0,600;    0,000;51,97400
 324,91;   44,475;   64,600;    0,000;-20,12500
 324,93;   36,713;   -5,800;    0,000;42,51300
 324,95;   38,604;    9,300;    0,000;29,30400
 324,96;   34,160;   33,200;    0,000; 0,96000
 324,98;   36,157;   23,300;    0,000;12,85700
 325,00;   30,445;  -35,600;    0,000;66,04500
 325,02;   27,271;  -30,000;    0,000;57,27100
 325,04;   31,277;  -53,900;    0,000;85,17700
 325,06;   30,241;  -21,600;    0,000;51,84100
 325,07;   32,415;   32,800;    0,000;-0,38500
 325,09;   26,227;  -28,000;    0,000;54,22700
 325,11;   27,211;    9,300;    0,000;17,91100
 325,13;   30,558;  -51,400;    0,000;81,95800
 325,15;   34,235;   10,300;    0,000;23,93500
 325,17;   40,007;   32,900;    0,000; 7,10700
 325,19;   43,328;  -12,500;    0,000;55,82800
 325,20;   40,605;  -27,800;    0,000;68,40500
 325,22;   46,460;   16,500;    0,000;29,96000
 325,24;   53,179;    3,100;    0,000;50,07900
 325,26;   68,546;   16,500;    0,000;52,04600
 325,28;   77,713;   79,200;    0,000;-1,48700
 325,30;   92,084;   67,800;    0,000;24,28400
 325,31;  130,409;   10,600;    0,000;119,80900
 325,33;  222,284;   40,700;    0,000;181,58400
 325,35;  199,343;   24,500;    0,000;174,84300
 325,37;   76,629;    3,300;    0,000;73,32900
 325,39;   29,911;  -10,300;    0,000;40,21100
 325,41;   23,541;  -26,200;    0,000;49,74100
 325,42;   18,324;  -28,800;    0,000;47,12400
 325,44;   17,708;  -48,500;    0,000;66,20800
 325,46;   18,321;  -54,800;    0,000;73,12100
 325,48;   19,778;   27,500;    0,000;-7,72200
 325,50;   15,773;  -27,500;    0,000;43,27300
 325,52;   18,902;  -27,000;    0,000;45,90200
 325,54;   15,172;   -5,000;    0,000;20,17200
 325,55;   16,774;  -16,800;    0,000;33,57400
 325,57;   15,761;    8,800;    0,000; 6,96100
 325,59;   16,914;    1,000;    0,000;15,91400
 325,61;   14,391;   -3,100;    0,000;17,49100
 325,63;   17,877;   43,100;    0,000;-25,22300
 325,65;   17,566;   -7,400;    0,000;24,96600
 325,66;   15,925;  -45,200;    0,000;61,12500
 325,68;   17,124;  -30,300;    0,000;47,42400
 325,70;   18,331;   18,200;    0,000; 0,13100
 325,72;   21,400;    3,700;    0,000;17,70000
 325,74;   23,087;  -11,800;    0,000;34,88700
 325,76;   24,498;   23,900;    0,000; 0,59800
